Date:	21/02/2008		Time:	14:05		Version no:	0.00		Project name:	55		Sample name:	222		Section name:	section		Position	0.000000	mm	E0	0.000000	keV	E1	1.000000	keV/channel	sample surface	2.000000	cm	Tube anode:	Mo		Tube voltage:	30	kV	Tube current:	50	mA	gain	20		std. database	Duranglass-Mo		resultfile	result		matrix element	11		sample thickness	1.000000		air passage	0.560000	cm	comments	not in position		peaking_time	1.000000	m-sec	trigger_threshold	1008.300781	V	mca_bin_width	29.000000	no:	number_mca_channels	1024.000000	no:	gap_time	0.150000	m-sec	trigger_peaking_time	0.200000	m-sec	GAINDAC	12334		HIGHGAIN	1		TAURC	0		RCTAU	63		RCTAUFRAC	0		livetime	9.975080	seconds	runtime	10.000502	seconds	input_count_rate	3.691098	cps	output_count_rate	3.595219	cps	triggers	36819	seconds	events_in_run	35954	seconds	channel	content		1.000	0.000
2.000	0.000
3.000	0.000
4.000	0.000
5.000	0.000
6.000	0.000
7.000	0.000
8.000	0.000
9.000	0.000
10.000	0.000
11.000	0.000
12.000	0.000
13.000	0.000
14.000	0.000
15.000	0.000
16.000	0.000
17.000	0.000
18.000	0.000
19.000	0.000
20.000	0.000
21.000	0.000
22.000	0.000
23.000	0.000
24.000	0.000
25.000	0.000
26.000	0.000
27.000	0.000
28.000	0.000
29.000	0.000
30.000	0.000
31.000	370.000
32.000	504.000
33.000	662.000
34.000	887.000
35.000	1110.000
36.000	1371.000
37.000	1719.000
38.000	2045.000
39.000	2262.000
40.000	2516.000
41.000	2816.000
42.000	2899.000
43.000	3054.000
44.000	3271.000
45.000	3196.000
46.000	3259.000
47.000	3411.000
48.000	3264.000
49.000	3339.000
50.000	3348.000
51.000	3366.000
52.000	3395.000
53.000	3321.000
54.000	3331.000
55.000	3226.000
56.000	3228.000
57.000	3156.000
58.000	3018.000
59.000	3029.000
60.000	2912.000
61.000	2972.000
62.000	2923.000
63.000	2720.000
64.000	2811.000
65.000	2752.000
66.000	2754.000
67.000	2610.000
68.000	2627.000
69.000	2523.000
70.000	2607.000
71.000	2388.000
72.000	2438.000
73.000	2355.000
74.000	2344.000
75.000	2349.000
76.000	2241.000
77.000	2131.000
78.000	2217.000
79.000	2126.000
80.000	2020.000
81.000	2176.000
82.000	2084.000
83.000	2121.000
84.000	2072.000
85.000	2049.000
86.000	2021.000
87.000	1991.000
88.000	1951.000
89.000	1861.000
90.000	1885.000
91.000	1922.000
92.000	1866.000
93.000	1884.000
94.000	1771.000
95.000	1908.000
96.000	1937.000
97.000	1945.000
98.000	2014.000
99.000	1928.000
100.000	1876.000
101.000	1849.000
102.000	1771.000
103.000	1812.000
104.000	1686.000
105.000	1699.000
106.000	1836.000
107.000	1803.000
108.000	1822.000
109.000	1779.000
110.000	1794.000
111.000	1788.000
112.000	1738.000
113.000	1697.000
114.000	1630.000
115.000	1547.000
116.000	1534.000
117.000	1416.000
118.000	1519.000
119.000	1489.000
120.000	1346.000
121.000	1371.000
122.000	1409.000
123.000	1457.000
124.000	1505.000
125.000	1382.000
126.000	1427.000
127.000	1541.000
128.000	1652.000
129.000	1551.000
130.000	1631.000
131.000	1603.000
132.000	1485.000
133.000	1596.000
134.000	1469.000
135.000	1491.000
136.000	1452.000
137.000	1364.000
138.000	1222.000
139.000	1337.000
140.000	1313.000
141.000	1269.000
142.000	1242.000
143.000	1201.000
144.000	1243.000
145.000	1185.000
146.000	1162.000
147.000	1156.000
148.000	1192.000
149.000	1152.000
150.000	1264.000
151.000	1159.000
152.000	1180.000
153.000	1136.000
154.000	1182.000
155.000	1186.000
156.000	1164.000
157.000	1201.000
158.000	1226.000
159.000	1300.000
160.000	1315.000
161.000	1523.000
162.000	1713.000
163.000	2074.000
164.000	2403.000
165.000	2746.000
166.000	2884.000
167.000	2919.000
168.000	2816.000
169.000	2580.000
170.000	2101.000
171.000	1806.000
172.000	1453.000
173.000	1364.000
174.000	1233.000
175.000	1211.000
176.000	1357.000
177.000	1338.000
178.000	1551.000
179.000	1745.000
180.000	2153.000
181.000	2684.000
182.000	3310.000
183.000	4180.000
184.000	5077.000
185.000	5677.000
186.000	5941.000
187.000	6023.000
188.000	5500.000
189.000	4832.000
190.000	4096.000
191.000	3184.000
192.000	2516.000
193.000	2054.000
194.000	1746.000
195.000	1576.000
196.000	1624.000
197.000	1880.000
198.000	2459.000
199.000	3113.000
200.000	4501.000
201.000	6412.000
202.000	9232.000
203.000	12588.000
204.000	16717.000
205.000	21108.000
206.000	24658.000
207.000	26988.000
208.000	27022.000
209.000	25745.000
210.000	21873.000
211.000	17276.000
212.000	12901.000
213.000	8935.000
214.000	5728.000
215.000	3783.000
216.000	2603.000
217.000	2024.000
218.000	1906.000
219.000	2085.000
220.000	2593.000
221.000	3062.000
222.000	3717.000
223.000	4408.000
224.000	4953.000
225.000	5539.000
226.000	5486.000
227.000	5180.000
228.000	4656.000
229.000	3893.000
230.000	3132.000
231.000	2488.000
232.000	1932.000
233.000	1542.000
234.000	1274.000
235.000	1183.000
236.000	1147.000
237.000	1153.000
238.000	1044.000
239.000	1132.000
240.000	1147.000
241.000	1173.000
242.000	1259.000
243.000	1453.000
244.000	1739.000
245.000	2186.000
246.000	2894.000
247.000	3942.000
248.000	5387.000
249.000	7224.000
250.000	9246.000
251.000	11017.000
252.000	12368.000
253.000	13620.000
254.000	13752.000
255.000	12686.000
256.000	11321.000
257.000	9695.000
258.000	7963.000
259.000	6579.000
260.000	5402.000
261.000	4640.000
262.000	3932.000
263.000	3531.000
264.000	3077.000
265.000	2763.000
266.000	2323.000
267.000	2186.000
268.000	2035.000
269.000	2015.000
270.000	2125.000
271.000	2439.000
272.000	2633.000
273.000	3132.000
274.000	3549.000
275.000	3880.000
276.000	4221.000
277.000	4282.000
278.000	4326.000
279.000	4098.000
280.000	3711.000
281.000	3313.000
282.000	2804.000
283.000	2426.000
284.000	2082.000
285.000	1868.000
286.000	1860.000
287.000	1731.000
288.000	1731.000
289.000	1731.000
290.000	1753.000
291.000	1843.000
292.000	1791.000
293.000	1827.000
294.000	1903.000
295.000	1969.000
296.000	2143.000
297.000	2154.000
298.000	2105.000
299.000	2228.000
300.000	2201.000
301.000	2241.000
302.000	2242.000
303.000	2264.000
304.000	2306.000
305.000	2409.000
306.000	2241.000
307.000	2362.000
308.000	2197.000
309.000	2220.000
310.000	2195.000
311.000	2261.000
312.000	2173.000
313.000	2230.000
314.000	2192.000
315.000	2330.000
316.000	2277.000
317.000	2278.000
318.000	2287.000
319.000	2411.000
320.000	2478.000
321.000	2653.000
322.000	2817.000
323.000	3111.000
324.000	3625.000
325.000	4114.000
326.000	4764.000
327.000	5323.000
328.000	6308.000
329.000	6914.000
330.000	7335.000
331.000	7500.000
332.000	7525.000
333.000	7164.000
334.000	6674.000
335.000	6092.000
336.000	5551.000
337.000	5067.000
338.000	4886.000
339.000	4660.000
340.000	4697.000
341.000	4985.000
342.000	5271.000
343.000	5870.000
344.000	6747.000
345.000	7881.000
346.000	10392.000
347.000	14357.000
348.000	21223.000
349.000	33398.000
350.000	54053.000
351.000	84643.000
352.000	129295.000
353.000	190407.000
354.000	265068.000
355.000	351544.000
356.000	438779.000
357.000	515319.000
358.000	571703.000
359.000	593780.000
360.000	581984.000
361.000	534025.000
362.000	460719.000
363.000	374451.000
364.000	285319.000
365.000	203929.000
366.000	137727.000
367.000	87949.000
368.000	53560.000
369.000	31263.000
370.000	18244.000
371.000	10729.000
372.000	6862.000
373.000	4811.000
374.000	4174.000
375.000	3822.000
376.000	3744.000
377.000	3867.000
378.000	4043.000
379.000	4191.000
380.000	4510.000
381.000	4959.000
382.000	5483.000
383.000	6275.000
384.000	7491.000
385.000	9527.000
386.000	12419.000
387.000	17298.000
388.000	23582.000
389.000	32317.000
390.000	43207.000
391.000	56517.000
392.000	70630.000
393.000	83621.000
394.000	94817.000
395.000	102036.000
396.000	103535.000
397.000	98604.000
398.000	89579.000
399.000	76737.000
400.000	62789.000
401.000	47785.000
402.000	34860.000
403.000	23909.000
404.000	16211.000
405.000	10571.000
406.000	7010.000
407.000	4818.000
408.000	3523.000
409.000	2940.000
410.000	2508.000
411.000	2463.000
412.000	2503.000
413.000	2414.000
414.000	2495.000
415.000	2511.000
416.000	2536.000
417.000	2581.000
418.000	2535.000
419.000	2659.000
420.000	2701.000
421.000	2680.000
422.000	2753.000
423.000	2723.000
424.000	2712.000
425.000	2776.000
426.000	2752.000
427.000	2553.000
428.000	2732.000
429.000	2706.000
430.000	2736.000
431.000	2733.000
432.000	2759.000
433.000	2754.000
434.000	2702.000
435.000	2766.000
436.000	2854.000
437.000	2828.000
438.000	2945.000
439.000	3009.000
440.000	3044.000
441.000	3204.000
442.000	3250.000
443.000	3488.000
444.000	3531.000
445.000	3878.000
446.000	4010.000
447.000	4254.000
448.000	4567.000
449.000	4701.000
450.000	4991.000
451.000	5062.000
452.000	5128.000
453.000	5205.000
454.000	5127.000
455.000	4972.000
456.000	4932.000
457.000	4820.000
458.000	4790.000
459.000	4641.000
460.000	4721.000
461.000	4648.000
462.000	4723.000
463.000	4837.000
464.000	4927.000
465.000	5106.000
466.000	5374.000
467.000	5538.000
468.000	5716.000
469.000	6064.000
470.000	5832.000
471.000	5991.000
472.000	6010.000
473.000	5868.000
474.000	5707.000
475.000	5643.000
476.000	5440.000
477.000	5490.000
478.000	5695.000
479.000	5874.000
480.000	6074.000
481.000	6493.000
482.000	6630.000
483.000	6862.000
484.000	6860.000
485.000	6996.000
486.000	6831.000
487.000	6679.000
488.000	6501.000
489.000	6159.000
490.000	5842.000
491.000	5711.000
492.000	5478.000
493.000	5536.000
494.000	5503.000
495.000	5383.000
496.000	5354.000
497.000	5565.000
498.000	5463.000
499.000	5607.000
500.000	5677.000
501.000	5610.000
502.000	5779.000
503.000	5832.000
504.000	5841.000
505.000	5756.000
506.000	5886.000
507.000	5994.000
508.000	6157.000
509.000	6109.000
510.000	6200.000
511.000	6259.000
512.000	6708.000
513.000	6748.000
514.000	6833.000
515.000	7083.000
516.000	7410.000
517.000	7321.000
518.000	7772.000
519.000	7770.000
520.000	7940.000
521.000	7905.000
522.000	7918.000
523.000	7770.000
524.000	7773.000
525.000	7844.000
526.000	7682.000
527.000	7831.000
528.000	8065.000
529.000	8052.000
530.000	8228.000
531.000	8272.000
532.000	8533.000
533.000	8607.000
534.000	8642.000
535.000	8998.000
536.000	9015.000
537.000	9216.000
538.000	9518.000
539.000	9277.000
540.000	9497.000
541.000	9532.000
542.000	9624.000
543.000	9439.000
544.000	9317.000
545.000	9454.000
546.000	9302.000
547.000	9038.000
548.000	8921.000
549.000	8869.000
550.000	8794.000
551.000	8960.000
552.000	9019.000
553.000	8911.000
554.000	8941.000
555.000	9272.000
556.000	9265.000
557.000	9305.000
558.000	9258.000
559.000	9167.000
560.000	9260.000
561.000	9274.000
562.000	9179.000
563.000	9115.000
564.000	9227.000
565.000	9034.000
566.000	8991.000
567.000	8888.000
568.000	9326.000
569.000	9080.000
570.000	9204.000
571.000	9289.000
572.000	9318.000
573.000	9284.000
574.000	9590.000
575.000	9557.000
576.000	9581.000
577.000	9765.000
578.000	9564.000
579.000	9747.000
580.000	9908.000
581.000	10104.000
582.000	10055.000
583.000	10079.000
584.000	10429.000
585.000	10556.000
586.000	10396.000
587.000	10980.000
588.000	11016.000
589.000	11073.000
590.000	11102.000
591.000	11316.000
592.000	11397.000
593.000	11245.000
594.000	11312.000
595.000	11334.000
596.000	11252.000
597.000	11158.000
598.000	11195.000
599.000	11260.000
600.000	11162.000
601.000	11287.000
602.000	11229.000
603.000	11507.000
604.000	11626.000
605.000	11682.000
606.000	11792.000
607.000	11702.000
608.000	11892.000
609.000	12089.000
610.000	12027.000
611.000	12009.000
612.000	12166.000
613.000	12330.000
614.000	12215.000
615.000	12589.000
616.000	12585.000
617.000	12739.000
618.000	12638.000
619.000	12744.000
620.000	12635.000
621.000	12846.000
622.000	12696.000
623.000	12927.000
624.000	13134.000
625.000	13098.000
626.000	13199.000
627.000	13182.000
628.000	13496.000
629.000	13293.000
630.000	13385.000
631.000	13388.000
632.000	13590.000
633.000	13606.000
634.000	13479.000
635.000	13678.000
636.000	13576.000
637.000	13824.000
638.000	13719.000
639.000	13818.000
640.000	13794.000
641.000	13890.000
642.000	13683.000
643.000	13834.000
644.000	13654.000
645.000	13913.000
646.000	13958.000
647.000	13929.000
648.000	13924.000
649.000	14242.000
650.000	13803.000
651.000	14000.000
652.000	14261.000
653.000	14032.000
654.000	13998.000
655.000	14413.000
656.000	14124.000
657.000	14218.000
658.000	14239.000
659.000	14354.000
660.000	14335.000
661.000	14285.000
662.000	14269.000
663.000	14270.000
664.000	14080.000
665.000	14336.000
666.000	14137.000
667.000	14272.000
668.000	14308.000
669.000	14244.000
670.000	14231.000
671.000	14392.000
672.000	14104.000
673.000	14215.000
674.000	13808.000
675.000	14246.000
676.000	14324.000
677.000	14318.000
678.000	14513.000
679.000	14411.000
680.000	14477.000
681.000	14874.000
682.000	14926.000
683.000	14879.000
684.000	14689.000
685.000	14980.000
686.000	15268.000
687.000	15314.000
688.000	15229.000
689.000	15286.000
690.000	15465.000
691.000	15575.000
692.000	15752.000
693.000	15675.000
694.000	15769.000
695.000	15936.000
696.000	16018.000
697.000	16057.000
698.000	16184.000
699.000	16357.000
700.000	16571.000
701.000	16682.000
702.000	16613.000
703.000	16792.000
704.000	16867.000
705.000	16952.000
706.000	17105.000
707.000	16943.000
708.000	17156.000
709.000	17356.000
710.000	17166.000
711.000	17137.000
712.000	17565.000
713.000	17399.000
714.000	17492.000
715.000	17493.000
716.000	17754.000
717.000	17916.000
718.000	17633.000
719.000	17604.000
720.000	17736.000
721.000	17842.000
722.000	17861.000
723.000	18037.000
724.000	17918.000
725.000	17945.000
726.000	18127.000
727.000	18031.000
728.000	18086.000
729.000	18093.000
730.000	18303.000
731.000	18046.000
732.000	18030.000
733.000	18275.000
734.000	18302.000
735.000	18438.000
736.000	18214.000
737.000	18643.000
738.000	18684.000
739.000	18683.000
740.000	19168.000
741.000	19402.000
742.000	19573.000
743.000	19666.000
744.000	20331.000
745.000	20740.000
746.000	20884.000
747.000	20865.000
748.000	21343.000
749.000	21407.000
750.000	21417.000
751.000	21491.000
752.000	21098.000
753.000	20960.000
754.000	20700.000
755.000	20645.000
756.000	20475.000
757.000	20044.000
758.000	20207.000
759.000	20048.000
760.000	19358.000
761.000	19720.000
762.000	19641.000
763.000	19859.000
764.000	19655.000
765.000	19764.000
766.000	19794.000
767.000	19732.000
768.000	19777.000
769.000	19758.000
770.000	19802.000
771.000	19711.000
772.000	19772.000
773.000	19752.000
774.000	20055.000
775.000	20094.000
776.000	20288.000
777.000	20494.000
778.000	20727.000
779.000	21157.000
780.000	21799.000
781.000	22559.000
782.000	23731.000
783.000	25084.000
784.000	26435.000
785.000	27985.000
786.000	30139.000
787.000	31996.000
788.000	34143.000
789.000	35505.000
790.000	36990.000
791.000	37907.000
792.000	38411.000
793.000	38442.000
794.000	37380.000
795.000	36037.000
796.000	34728.000
797.000	32633.000
798.000	30856.000
799.000	28912.000
800.000	26878.000
801.000	25746.000
802.000	24421.000
803.000	23399.000
804.000	22679.000
805.000	21976.000
806.000	21598.000
807.000	21348.000
808.000	21456.000
809.000	21241.000
810.000	21289.000
811.000	21249.000
812.000	21350.000
813.000	21266.000
814.000	21554.000
815.000	21508.000
816.000	21568.000
817.000	21368.000
818.000	21891.000
819.000	21341.000
820.000	22073.000
821.000	21968.000
822.000	21885.000
823.000	22291.000
824.000	22182.000
825.000	22364.000
826.000	22773.000
827.000	22772.000
828.000	23077.000
829.000	23166.000
830.000	23317.000
831.000	24007.000
832.000	24015.000
833.000	24498.000
834.000	24677.000
835.000	25007.000
836.000	24844.000
837.000	25173.000
838.000	25048.000
839.000	24911.000
840.000	24984.000
841.000	25042.000
842.000	24700.000
843.000	24588.000
844.000	24658.000
845.000	24335.000
846.000	24253.000
847.000	24245.000
848.000	24319.000
849.000	24223.000
850.000	24175.000
851.000	24485.000
852.000	24411.000
853.000	24513.000
854.000	24776.000
855.000	24780.000
856.000	24822.000
857.000	24777.000
858.000	25185.000
859.000	25318.000
860.000	25227.000
861.000	25569.000
862.000	25698.000
863.000	25788.000
864.000	26081.000
865.000	26143.000
866.000	26301.000
867.000	26791.000
868.000	27197.000
869.000	27513.000
870.000	27887.000
871.000	28325.000
872.000	28938.000
873.000	29520.000
874.000	30444.000
875.000	31291.000
876.000	32084.000
877.000	32920.000
878.000	34347.000
879.000	35070.000
880.000	35758.000
881.000	36633.000
882.000	37871.000
883.000	38206.000
884.000	38393.000
885.000	38913.000
886.000	39273.000
887.000	39306.000
888.000	38953.000
889.000	39301.000
890.000	38887.000
891.000	38745.000
892.000	38958.000
893.000	39427.000
894.000	39902.000
895.000	40511.000
896.000	41121.000
897.000	42497.000
898.000	43787.000
899.000	45109.000
900.000	46976.000
901.000	48901.000
902.000	50945.000
903.000	53349.000
904.000	55576.000
905.000	58526.000
906.000	61216.000
907.000	64827.000
908.000	68179.000
909.000	71081.000
910.000	74553.000
911.000	78186.000
912.000	81872.000
913.000	85150.000
914.000	88527.000
915.000	91677.000
916.000	94628.000
917.000	97585.000
918.000	98832.000
919.000	101146.000
920.000	102038.000
921.000	103662.000
922.000	103666.000
923.000	104018.000
924.000	104173.000
925.000	103011.000
926.000	102174.000
927.000	100629.000
928.000	98365.000
929.000	95846.000
930.000	92981.000
931.000	90375.000
932.000	87318.000
933.000	84309.000
934.000	80182.000
935.000	77271.000
936.000	73724.000
937.000	70167.000
938.000	66512.000
939.000	64049.000
940.000	60488.000
941.000	57590.000
942.000	54260.000
943.000	51960.000
944.000	49433.000
945.000	47345.000
946.000	45164.000
947.000	43430.000
948.000	42025.000
949.000	39926.000
950.000	38654.000
951.000	37103.000
952.000	35994.000
953.000	35253.000
954.000	34285.000
955.000	33527.000
956.000	33064.000
957.000	32571.000
958.000	32695.000
959.000	32560.000
960.000	32977.000
961.000	33481.000
962.000	35165.000
963.000	36772.000
964.000	38816.000
965.000	41865.000
966.000	45622.000
967.000	49943.000
968.000	54547.000
969.000	60437.000
970.000	66869.000
971.000	72190.000
972.000	78508.000
973.000	83644.000
974.000	87907.000
975.000	92027.000
976.000	93685.000
977.000	94508.000
978.000	93027.000
979.000	90460.000
980.000	86267.000
981.000	80973.000
982.000	74868.000
983.000	68014.000
984.000	61098.000
985.000	54819.000
986.000	48434.000
987.000	42843.000
988.000	38617.000
989.000	35022.000
990.000	32203.000
991.000	29707.000
992.000	28401.000
993.000	27621.000
994.000	26377.000
995.000	25905.000
996.000	25507.000
997.000	25507.000
998.000	25250.000
999.000	25536.000
1000.000	25485.000
1001.000	25653.000
1002.000	25829.000
1003.000	26052.000
1004.000	26402.000
1005.000	26376.000
1006.000	26712.000
1007.000	27316.000
1008.000	27800.000
1009.000	27773.000
1010.000	28579.000
1011.000	28697.000
1012.000	29179.000
1013.000	30242.000
1014.000	30488.000
1015.000	31244.000
1016.000	31630.000
1017.000	31938.000
1018.000	32800.000
1019.000	33196.000
1020.000	33397.000
1021.000	34414.000
1022.000	35255.000
1023.000	35120.000
1024.000	35875.000
