Date:	21/02/2008		Time:	16:53		Version no:	0.00		Project name:	55		Sample name:	222		Section name:	section		Position	0.000000	mm	E0	0.000000	keV	E1	1.000000	keV/channel	sample surface	2.000000	cm	Tube anode:	Mo		Tube voltage:	30	kV	Tube current:	50	mA	gain	20		std. database	Duranglass-Mo		resultfile	result		matrix element	11		sample thickness	1.000000		air passage	0.560000	cm	comments	not in position		peaking_time	1.000000	m-sec	trigger_threshold	1008.300781	V	mca_bin_width	29.000000	no:	number_mca_channels	1024.000000	no:	gap_time	0.150000	m-sec	trigger_peaking_time	0.200000	m-sec	GAINDAC	12334		HIGHGAIN	1		TAURC	0		RCTAU	63		RCTAUFRAC	0		livetime	9.989488	seconds	runtime	10.000502	seconds	input_count_rate	2.171082	cps	output_count_rate	2.152192	cps	triggers	21688	seconds	events_in_run	21523	seconds	channel	content		1.000	0.000
2.000	0.000
3.000	0.000
4.000	0.000
5.000	0.000
6.000	0.000
7.000	0.000
8.000	0.000
9.000	0.000
10.000	0.000
11.000	0.000
12.000	0.000
13.000	0.000
14.000	0.000
15.000	0.000
16.000	0.000
17.000	0.000
18.000	0.000
19.000	0.000
20.000	0.000
21.000	0.000
22.000	0.000
23.000	0.000
24.000	0.000
25.000	0.000
26.000	0.000
27.000	0.000
28.000	0.000
29.000	0.000
30.000	0.000
31.000	995.000
32.000	1418.000
33.000	2024.000
34.000	2669.000
35.000	3290.000
36.000	4416.000
37.000	5406.000
38.000	6721.000
39.000	7587.000
40.000	8557.000
41.000	9603.000
42.000	10347.000
43.000	11159.000
44.000	11763.000
45.000	12028.000
46.000	12257.000
47.000	12572.000
48.000	12667.000
49.000	12691.000
50.000	12659.000
51.000	12716.000
52.000	12652.000
53.000	12731.000
54.000	12449.000
55.000	12278.000
56.000	12366.000
57.000	11992.000
58.000	11909.000
59.000	11517.000
60.000	11341.000
61.000	11362.000
62.000	11148.000
63.000	10835.000
64.000	10618.000
65.000	10361.000
66.000	10224.000
67.000	10175.000
68.000	9836.000
69.000	9628.000
70.000	9505.000
71.000	9315.000
72.000	9163.000
73.000	9070.000
74.000	8896.000
75.000	8617.000
76.000	8701.000
77.000	8451.000
78.000	8459.000
79.000	8224.000
80.000	8044.000
81.000	7960.000
82.000	7919.000
83.000	7873.000
84.000	7962.000
85.000	7781.000
86.000	7657.000
87.000	7562.000
88.000	7407.000
89.000	7448.000
90.000	7177.000
91.000	7082.000
92.000	7267.000
93.000	7273.000
94.000	7370.000
95.000	7604.000
96.000	7907.000
97.000	7860.000
98.000	8046.000
99.000	7951.000
100.000	7735.000
101.000	7414.000
102.000	7163.000
103.000	7240.000
104.000	7142.000
105.000	6965.000
106.000	7247.000
107.000	7160.000
108.000	7405.000
109.000	7404.000
110.000	7431.000
111.000	7254.000
112.000	7144.000
113.000	6686.000
114.000	6280.000
115.000	6053.000
116.000	5799.000
117.000	5781.000
118.000	5531.000
119.000	5513.000
120.000	5641.000
121.000	5466.000
122.000	5433.000
123.000	5663.000
124.000	5700.000
125.000	6007.000
126.000	6095.000
127.000	6244.000
128.000	6342.000
129.000	6490.000
130.000	6445.000
131.000	6446.000
132.000	6020.000
133.000	6061.000
134.000	5863.000
135.000	5686.000
136.000	5496.000
137.000	5349.000
138.000	5270.000
139.000	5092.000
140.000	4954.000
141.000	4907.000
142.000	4623.000
143.000	4788.000
144.000	4704.000
145.000	4760.000
146.000	4740.000
147.000	4721.000
148.000	4624.000
149.000	4727.000
150.000	4615.000
151.000	4717.000
152.000	4859.000
153.000	4775.000
154.000	4831.000
155.000	4865.000
156.000	5102.000
157.000	5063.000
158.000	4927.000
159.000	5218.000
160.000	5380.000
161.000	5765.000
162.000	6265.000
163.000	6957.000
164.000	7598.000
165.000	8286.000
166.000	8587.000
167.000	8734.000
168.000	8277.000
169.000	7660.000
170.000	6930.000
171.000	6288.000
172.000	5458.000
173.000	5324.000
174.000	5078.000
175.000	5081.000
176.000	4975.000
177.000	5207.000
178.000	5658.000
179.000	6375.000
180.000	6970.000
181.000	8260.000
182.000	9270.000
183.000	10980.000
184.000	12634.000
185.000	14080.000
186.000	14302.000
187.000	14652.000
188.000	13666.000
189.000	12456.000
190.000	10618.000
191.000	9211.000
192.000	7769.000
193.000	6847.000
194.000	6561.000
195.000	6651.000
196.000	7348.000
197.000	8758.000
198.000	11319.000
199.000	15919.000
200.000	23600.000
201.000	34344.000
202.000	49840.000
203.000	68798.000
204.000	91812.000
205.000	114397.000
206.000	132500.000
207.000	143126.000
208.000	144120.000
209.000	133810.000
210.000	116100.000
211.000	92719.000
212.000	68874.000
213.000	48134.000
214.000	31875.000
215.000	20868.000
216.000	13815.000
217.000	10747.000
218.000	9690.000
219.000	10493.000
220.000	12759.000
221.000	15430.000
222.000	19009.000
223.000	22693.000
224.000	25838.000
225.000	27201.000
226.000	27884.000
227.000	26478.000
228.000	23412.000
229.000	19957.000
230.000	15633.000
231.000	12499.000
232.000	9598.000
233.000	7566.000
234.000	6287.000
235.000	5373.000
236.000	4984.000
237.000	4832.000
238.000	4849.000
239.000	4786.000
240.000	5111.000
241.000	5334.000
242.000	6061.000
243.000	7411.000
244.000	9276.000
245.000	12237.000
246.000	17006.000
247.000	23883.000
248.000	33008.000
249.000	43636.000
250.000	56034.000
251.000	66927.000
252.000	75804.000
253.000	79877.000
254.000	80735.000
255.000	75591.000
256.000	66091.000
257.000	56203.000
258.000	44722.000
259.000	35351.000
260.000	27815.000
261.000	22328.000
262.000	18260.000
263.000	15486.000
264.000	13451.000
265.000	11518.000
266.000	10178.000
267.000	9255.000
268.000	8977.000
269.000	9256.000
270.000	9967.000
271.000	11251.000
272.000	13064.000
273.000	15209.000
274.000	18031.000
275.000	19771.000
276.000	21257.000
277.000	22096.000
278.000	21376.000
279.000	20365.000
280.000	18177.000
281.000	15912.000
282.000	13244.000
283.000	11353.000
284.000	9653.000
285.000	8564.000
286.000	7633.000
287.000	7256.000
288.000	6891.000
289.000	7148.000
290.000	7052.000
291.000	7544.000
292.000	7556.000
293.000	7887.000
294.000	8239.000
295.000	8443.000
296.000	8724.000
297.000	8850.000
298.000	9319.000
299.000	9544.000
300.000	9757.000
301.000	9659.000
302.000	9993.000
303.000	10098.000
304.000	10064.000
305.000	10032.000
306.000	9896.000
307.000	9532.000
308.000	9657.000
309.000	9383.000
310.000	9281.000
311.000	9517.000
312.000	9112.000
313.000	9175.000
314.000	9199.000
315.000	9252.000
316.000	9541.000
317.000	9674.000
318.000	9904.000
319.000	10366.000
320.000	10886.000
321.000	11951.000
322.000	13417.000
323.000	15399.000
324.000	18469.000
325.000	21996.000
326.000	26350.000
327.000	31161.000
328.000	35531.000
329.000	39469.000
330.000	42244.000
331.000	43383.000
332.000	42424.000
333.000	39872.000
334.000	36733.000
335.000	32470.000
336.000	28899.000
337.000	25802.000
338.000	23232.000
339.000	22131.000
340.000	21723.000
341.000	22395.000
342.000	24039.000
343.000	26354.000
344.000	30812.000
345.000	38163.000
346.000	50586.000
347.000	72480.000
348.000	109909.000
349.000	170890.000
350.000	264881.000
351.000	408506.000
352.000	607924.000
353.000	870259.000
354.000	1183964.000
355.000	1530041.000
356.000	1877726.000
357.000	2170189.000
358.000	2378650.000
359.000	2454126.000
360.000	2386148.000
361.000	2188705.000
362.000	1895621.000
363.000	1542716.000
364.000	1181601.000
365.000	856396.000
366.000	586760.000
367.000	379930.000
368.000	235223.000
369.000	139643.000
370.000	82194.000
371.000	48912.000
372.000	31422.000
373.000	22549.000
374.000	18376.000
375.000	16833.000
376.000	16335.000
377.000	16433.000
378.000	17182.000
379.000	17872.000
380.000	18965.000
381.000	20970.000
382.000	24024.000
383.000	27790.000
384.000	34699.000
385.000	43919.000
386.000	58761.000
387.000	79590.000
388.000	108444.000
389.000	146208.000
390.000	193264.000
391.000	246509.000
392.000	301467.000
393.000	352606.000
394.000	395394.000
395.000	420013.000
396.000	423716.000
397.000	405346.000
398.000	366414.000
399.000	313544.000
400.000	254798.000
401.000	197054.000
402.000	145230.000
403.000	102142.000
404.000	68930.000
405.000	46133.000
406.000	30970.000
407.000	21511.000
408.000	15791.000
409.000	12793.000
410.000	11185.000
411.000	10609.000
412.000	10379.000
413.000	10441.000
414.000	10620.000
415.000	10959.000
416.000	11034.000
417.000	11185.000
418.000	11437.000
419.000	11635.000
420.000	11709.000
421.000	11548.000
422.000	11526.000
423.000	11658.000
424.000	11249.000
425.000	11324.000
426.000	11308.000
427.000	11306.000
428.000	11338.000
429.000	11355.000
430.000	11366.000
431.000	11561.000
432.000	11657.000
433.000	11775.000
434.000	11877.000
435.000	12051.000
436.000	12161.000
437.000	12216.000
438.000	12657.000
439.000	12953.000
440.000	13329.000
441.000	13811.000
442.000	14234.000
443.000	14888.000
444.000	15686.000
445.000	16754.000
446.000	17568.000
447.000	19080.000
448.000	20179.000
449.000	21271.000
450.000	21831.000
451.000	22242.000
452.000	22619.000
453.000	22459.000
454.000	22115.000
455.000	21734.000
456.000	21218.000
457.000	20821.000
458.000	20377.000
459.000	20085.000
460.000	19900.000
461.000	19794.000
462.000	20391.000
463.000	20550.000
464.000	21062.000
465.000	21925.000
466.000	22491.000
467.000	23623.000
468.000	24284.000
469.000	24547.000
470.000	25549.000
471.000	25377.000
472.000	25422.000
473.000	24698.000
474.000	24314.000
475.000	23791.000
476.000	23329.000
477.000	23440.000
478.000	23927.000
479.000	24415.000
480.000	24935.000
481.000	25632.000
482.000	26614.000
483.000	27002.000
484.000	27118.000
485.000	27525.000
486.000	26979.000
487.000	26183.000
488.000	25471.000
489.000	24884.000
490.000	24057.000
491.000	23441.000
492.000	22985.000
493.000	22812.000
494.000	22809.000
495.000	22928.000
496.000	23189.000
497.000	23463.000
498.000	23633.000
499.000	23757.000
500.000	24005.000
501.000	24158.000
502.000	24287.000
503.000	24292.000
504.000	24313.000
505.000	24854.000
506.000	25114.000
507.000	25159.000
508.000	25503.000
509.000	25798.000
510.000	26234.000
511.000	26766.000
512.000	27329.000
513.000	27922.000
514.000	29012.000
515.000	29228.000
516.000	30320.000
517.000	30873.000
518.000	31363.000
519.000	31687.000
520.000	32163.000
521.000	31947.000
522.000	32201.000
523.000	32513.000
524.000	32394.000
525.000	32238.000
526.000	32619.000
527.000	32712.000
528.000	32970.000
529.000	33338.000
530.000	33541.000
531.000	34018.000
532.000	34788.000
533.000	35313.000
534.000	35667.000
535.000	36350.000
536.000	37012.000
537.000	37493.000
538.000	38226.000
539.000	38941.000
540.000	38881.000
541.000	38692.000
542.000	39295.000
543.000	38944.000
544.000	38299.000
545.000	38293.000
546.000	38098.000
547.000	37324.000
548.000	37277.000
549.000	37347.000
550.000	36869.000
551.000	36714.000
552.000	36874.000
553.000	37021.000
554.000	37299.000
555.000	37562.000
556.000	37394.000
557.000	37860.000
558.000	37987.000
559.000	38150.000
560.000	37734.000
561.000	38138.000
562.000	38054.000
563.000	37741.000
564.000	37735.000
565.000	37697.000
566.000	37698.000
567.000	37814.000
568.000	37827.000
569.000	37796.000
570.000	38261.000
571.000	38237.000
572.000	38642.000
573.000	38476.000
574.000	39115.000
575.000	38840.000
576.000	39168.000
577.000	39569.000
578.000	39639.000
579.000	39989.000
580.000	40088.000
581.000	40462.000
582.000	41058.000
583.000	40936.000
584.000	41405.000
585.000	41720.000
586.000	42299.000
587.000	42688.000
588.000	43626.000
589.000	43955.000
590.000	43499.000
591.000	44023.000
592.000	44733.000
593.000	44589.000
594.000	44648.000
595.000	44874.000
596.000	44950.000
597.000	45435.000
598.000	44957.000
599.000	45872.000
600.000	46200.000
601.000	46643.000
602.000	47166.000
603.000	47177.000
604.000	47731.000
605.000	48431.000
606.000	48561.000
607.000	48910.000
608.000	49045.000
609.000	49206.000
610.000	50023.000
611.000	49800.000
612.000	50050.000
613.000	50312.000
614.000	50282.000
615.000	50432.000
616.000	50978.000
617.000	50616.000
618.000	50600.000
619.000	50757.000
620.000	51053.000
621.000	51717.000
622.000	51678.000
623.000	51865.000
624.000	52170.000
625.000	52303.000
626.000	52722.000
627.000	53175.000
628.000	53236.000
629.000	53880.000
630.000	54143.000
631.000	54054.000
632.000	54151.000
633.000	54760.000
634.000	54745.000
635.000	54755.000
636.000	54441.000
637.000	54521.000
638.000	54732.000
639.000	54605.000
640.000	54507.000
641.000	54434.000
642.000	54575.000
643.000	54416.000
644.000	54865.000
645.000	54744.000
646.000	54987.000
647.000	54989.000
648.000	54974.000
649.000	55832.000
650.000	55249.000
651.000	55571.000
652.000	55529.000
653.000	55594.000
654.000	56482.000
655.000	55968.000
656.000	56158.000
657.000	56907.000
658.000	57165.000
659.000	57509.000
660.000	57295.000
661.000	58090.000
662.000	58250.000
663.000	58729.000
664.000	59214.000
665.000	59331.000
666.000	58981.000
667.000	58950.000
668.000	59593.000
669.000	58908.000
670.000	59027.000
671.000	58375.000
672.000	58624.000
673.000	58425.000
674.000	58163.000
675.000	57858.000
676.000	57573.000
677.000	57760.000
678.000	58006.000
679.000	57873.000
680.000	58263.000
681.000	58328.000
682.000	58648.000
683.000	58958.000
684.000	59293.000
685.000	59758.000
686.000	60770.000
687.000	60712.000
688.000	60596.000
689.000	61015.000
690.000	61250.000
691.000	61826.000
692.000	62333.000
693.000	62461.000
694.000	62623.000
695.000	63213.000
696.000	63683.000
697.000	63907.000
698.000	64179.000
699.000	64839.000
700.000	64307.000
701.000	65475.000
702.000	65479.000
703.000	66550.000
704.000	66284.000
705.000	67018.000
706.000	67063.000
707.000	67528.000
708.000	68018.000
709.000	67922.000
710.000	68108.000
711.000	68612.000
712.000	68668.000
713.000	68458.000
714.000	69063.000
715.000	69603.000
716.000	70053.000
717.000	69668.000
718.000	69809.000
719.000	70005.000
720.000	71058.000
721.000	70608.000
722.000	70645.000
723.000	71293.000
724.000	71478.000
725.000	71585.000
726.000	71728.000
727.000	71410.000
728.000	72467.000
729.000	72011.000
730.000	72062.000
731.000	72087.000
732.000	72352.000
733.000	72240.000
734.000	72873.000
735.000	72482.000
736.000	73084.000
737.000	73149.000
738.000	73419.000
739.000	74100.000
740.000	73801.000
741.000	74684.000
742.000	74796.000
743.000	75479.000
744.000	76157.000
745.000	76885.000
746.000	77299.000
747.000	76743.000
748.000	77872.000
749.000	77585.000
750.000	77524.000
751.000	77925.000
752.000	77283.000
753.000	77205.000
754.000	77323.000
755.000	77292.000
756.000	76594.000
757.000	76102.000
758.000	75913.000
759.000	75745.000
760.000	75826.000
761.000	76059.000
762.000	76368.000
763.000	75351.000
764.000	75776.000
765.000	75847.000
766.000	75545.000
767.000	75707.000
768.000	76259.000
769.000	76387.000
770.000	76232.000
771.000	76449.000
772.000	76854.000
773.000	77172.000
774.000	77448.000
775.000	78084.000
776.000	79524.000
777.000	80557.000
778.000	82691.000
779.000	85509.000
780.000	89305.000
781.000	94385.000
782.000	100138.000
783.000	107529.000
784.000	115613.000
785.000	125122.000
786.000	135879.000
787.000	146142.000
788.000	155725.000
789.000	164635.000
790.000	171400.000
791.000	175831.000
792.000	176882.000
793.000	175130.000
794.000	170836.000
795.000	162717.000
796.000	153989.000
797.000	143423.000
798.000	132657.000
799.000	122877.000
800.000	112709.000
801.000	105072.000
802.000	98219.000
803.000	92386.000
804.000	88696.000
805.000	85975.000
806.000	83851.000
807.000	83444.000
808.000	82030.000
809.000	82030.000
810.000	81294.000
811.000	81825.000
812.000	81443.000
813.000	81618.000
814.000	82306.000
815.000	82398.000
816.000	82526.000
817.000	82978.000
818.000	82311.000
819.000	83193.000
820.000	83535.000
821.000	83087.000
822.000	83915.000
823.000	85177.000
824.000	85141.000
825.000	86180.000
826.000	86553.000
827.000	87378.000
828.000	88861.000
829.000	89542.000
830.000	90496.000
831.000	91808.000
832.000	93104.000
833.000	94058.000
834.000	94671.000
835.000	95338.000
836.000	96272.000
837.000	96049.000
838.000	95643.000
839.000	95923.000
840.000	94891.000
841.000	94825.000
842.000	93361.000
843.000	93462.000
844.000	92620.000
845.000	92414.000
846.000	92070.000
847.000	91924.000
848.000	91948.000
849.000	92073.000
850.000	91731.000
851.000	92268.000
852.000	92089.000
853.000	92968.000
854.000	93189.000
855.000	93625.000
856.000	93662.000
857.000	94255.000
858.000	95348.000
859.000	95626.000
860.000	96381.000
861.000	96391.000
862.000	97032.000
863.000	97714.000
864.000	98508.000
865.000	98993.000
866.000	100366.000
867.000	101688.000
868.000	102564.000
869.000	104213.000
870.000	106344.000
871.000	108740.000
872.000	111911.000
873.000	114447.000
874.000	117988.000
875.000	121373.000
876.000	125480.000
877.000	130454.000
878.000	134779.000
879.000	138874.000
880.000	143706.000
881.000	146646.000
882.000	150796.000
883.000	153281.000
884.000	154390.000
885.000	155495.000
886.000	155692.000
887.000	155140.000
888.000	153573.000
889.000	152676.000
890.000	151629.000
891.000	150889.000
892.000	150905.000
893.000	151843.000
894.000	152395.000
895.000	154573.000
896.000	157315.000
897.000	160973.000
898.000	166013.000
899.000	171995.000
900.000	178260.000
901.000	185617.000
902.000	193667.000
903.000	202546.000
904.000	213841.000
905.000	223873.000
906.000	234924.000
907.000	247445.000
908.000	259792.000
909.000	272670.000
910.000	286627.000
911.000	300169.000
912.000	313807.000
913.000	326192.000
914.000	339125.000
915.000	351966.000
916.000	362750.000
917.000	373509.000
918.000	381632.000
919.000	388695.000
920.000	393838.000
921.000	396558.000
922.000	398485.000
923.000	399491.000
924.000	397981.000
925.000	393558.000
926.000	387987.000
927.000	380973.000
928.000	372879.000
929.000	362095.000
930.000	352005.000
931.000	340396.000
932.000	328123.000
933.000	315507.000
934.000	301645.000
935.000	287639.000
936.000	273891.000
937.000	261903.000
938.000	248926.000
939.000	236219.000
940.000	223314.000
941.000	211979.000
942.000	201229.000
943.000	191621.000
944.000	183182.000
945.000	174739.000
946.000	166106.000
947.000	158911.000
948.000	152356.000
949.000	146122.000
950.000	140711.000
951.000	135802.000
952.000	132430.000
953.000	128582.000
954.000	125086.000
955.000	122317.000
956.000	121290.000
957.000	119365.000
958.000	119440.000
959.000	120033.000
960.000	121697.000
961.000	124833.000
962.000	130065.000
963.000	136404.000
964.000	145322.000
965.000	156285.000
966.000	170398.000
967.000	185741.000
968.000	203078.000
969.000	222342.000
970.000	241649.000
971.000	262877.000
972.000	281256.000
973.000	298546.000
974.000	312356.000
975.000	322350.000
976.000	328576.000
977.000	326770.000
978.000	320782.000
979.000	310306.000
980.000	296045.000
981.000	275990.000
982.000	254956.000
983.000	232785.000
984.000	208863.000
985.000	187964.000
986.000	168330.000
987.000	151040.000
988.000	136460.000
989.000	123712.000
990.000	115600.000
991.000	108378.000
992.000	103095.000
993.000	99527.000
994.000	97538.000
995.000	94505.000
996.000	94071.000
997.000	94078.000
998.000	92996.000
999.000	93345.000
1000.000	93387.000
1001.000	94510.000
1002.000	94969.000
1003.000	94742.000
1004.000	96459.000
1005.000	96826.000
1006.000	98563.000
1007.000	100039.000
1008.000	100864.000
1009.000	102632.000
1010.000	104471.000
1011.000	106324.000
1012.000	107068.000
1013.000	109826.000
1014.000	111577.000
1015.000	114286.000
1016.000	116457.000
1017.000	118385.000
1018.000	120437.000
1019.000	123087.000
1020.000	124701.000
1021.000	127442.000
1022.000	128373.000
1023.000	130877.000
1024.000	131656.000
